WaveLength	Dark	Reference	Samples	Energy	IrrCali	StrayLight
192.363	8009.835	8023.275	8016.555	0		
192.734	6044.038	6058.555	6049.064	0		
193.105	4847.009	4864.941	4847.278	0		
193.475	5118.775	5142.952	5129.037	0		
193.846	-65.517	-49.883	-53.508	0		
194.217	-54.981	-49.373	-55.207	0		
194.587	-48.524	-38.499	-43.993	0		
194.958	-39.859	-28.816	-23.607	0		
195.329	-29.665	-23.041	-25.475	0		
195.699	-24.909	-12.340	-18.681	0		
196.070	-27.457	-10.642	-3.226	0		
196.440	-21.682	-10.642	-11.208	0		
196.811	-10.982	-9.793	-10.189	0		
197.182	-10.132	-4.528	-5.604	0		
197.552	-3.849	2.094	-6.453	0		
197.923	8.716	4.811	-4.755	0		
198.293	20.091	7.018	19.865	0		
198.663	21.789	14.489	24.448	0		
199.034	39.781	27.560	31.068	0		
199.404	49.454	31.804	37.688	0		
199.775	47.588	41.139	52.452	0		
200.145	38.763	49.624	48.040	0		
200.516	50.982	51.830	54.149	0		
200.886	48.776	51.491	62.972	0		
201.256	50.303	56.581	69.080	0		
201.627	57.090	69.137	65.687	0		
201.997	72.699	79.994	72.134	0		
202.367	77.280	80.503	84.517	0		
202.737	83.047	96.107	80.785	0		
203.108	86.100	95.937	89.097	0		
203.478	82.029	92.545	91.980	0		
203.848	79.315	89.832	101.307	0		
204.218	82.029	98.990	101.647	0		
204.588	76.601	90.849	108.430	0		
204.959	86.609	101.364	106.564	0		
205.329	94.241	101.025	112.329	0		
205.699	100.177	103.399	97.407	0		
206.069	93.054	98.820	94.185	0		
206.439	108.656	101.364	95.881	0		
206.809	97.124	100.516	96.559	0		
207.179	90.849	112.386	94.015	0		
207.549	95.598	116.286	104.021	0		
207.919	97.463	123.576	105.716	0		
208.289	97.294	115.777	105.547	0		
208.659	94.920	115.099	103.342	0		
209.029	90.680	103.060	109.277	0		
209.399	85.591	100.346	111.482	0		
209.769	81.690	101.364	114.195	0		
210.139	84.404	93.732	116.738	0		
210.509	89.492	100.007	117.925	0		
210.879	88.644	104.416	110.464	0		
211.249	89.662	99.668	109.108	0		
211.618	86.270	90.680	104.360	0		
211.988	74.565	105.773	100.799	0		
212.358	73.547	98.990	96.389	0		
212.728	81.351	97.803	93.676	0		
213.098	69.476	95.768	96.389	0		
213.467	78.637	102.212	89.775	0		
213.837	77.280	98.990	90.114	0		
214.207	72.699	98.651	94.015	0		
214.576	76.940	97.294	100.460	0		
214.946	83.725	105.603	100.120	0		
215.316	77.788	112.556	100.460	0		
215.685	75.414	104.416	98.764	0		
216.055	81.011	102.551	96.050	0		
216.425	75.074	110.351	87.231	0		
216.794	70.155	101.025	80.446	0		
217.164	66.592	86.270	80.276	0		
217.533	67.270	84.234	82.482	0		
217.903	68.797	93.054	85.704	0		
218.272	65.913	88.814	90.962	0		
218.642	66.422	90.680	93.845	0		
219.011	64.047	94.241	102.155	0		
219.381	76.092	100.855	97.237	0		
219.750	74.056	94.241	99.272	0		
220.120	80.842	94.241	106.903	0		
220.489	86.100	97.294	115.721	0		
220.858	89.323	99.159	122.333	0		
221.228	86.439	97.633	130.809	0		
221.597	87.966	101.703	124.706	0		
221.966	89.662	98.651	121.146	0		
222.336	86.270	96.276	106.395	0		
222.705	86.948	88.983	96.898	0		
223.074	82.538	101.703	92.149	0		
223.443	81.181	83.895	87.400	0		
223.813	78.128	87.118	80.446	0		
224.182	83.895	86.948	81.125	0		
224.551	81.351	97.803	72.982	0		
224.920	80.163	81.690	80.276	0		
225.289	86.439	91.528	85.704	0		
225.658	83.895	94.920	92.319	0		
226.027	79.146	91.019	103.173	0		
226.397	79.824	90.171	109.956	0		
226.766	77.788	94.750	104.360	0		
227.135	70.833	92.884	101.138	0		
227.504	70.324	86.270	102.155	0		
227.873	73.039	98.990	95.881	0		
228.242	74.396	101.703	101.307	0		
228.611	78.806	107.808	103.003	0		
228.980	74.735	117.981	107.751	0		
229.349	66.931	121.881	103.682	0		
229.717	64.047	110.860	108.430	0		
230.086	69.306	96.955	103.512	0		
230.455	59.296	86.948	101.647	0		
230.824	65.235	88.475	100.968	0		
231.193	78.128	84.404	104.360	0		
231.562	77.619	85.930	98.594	0		
231.931	75.583	101.873	101.816	0		
232.299	81.011	114.760	104.529	0		
232.668	75.244	101.873	104.699	0		
233.037	74.056	103.908	108.090	0		
233.406	74.226	107.299	104.190	0		
233.774	70.494	103.229	100.460	0		
234.143	68.967	86.948	100.799	0		
234.512	69.476	100.686	92.489	0		
234.880	71.342	99.668	90.284	0		
235.249	73.039	94.580	101.647	0		
235.617	77.449	91.358	97.577	0		
235.986	73.039	102.042	101.986	0		
236.355	70.494	93.902	113.347	0		
236.723	67.610	92.884	102.834	0		
237.092	77.110	99.159	98.424	0		
237.460	74.396	97.633	97.407	0		
237.829	87.118	95.259	88.757	0		
238.197	97.463	94.920	86.044	0		
238.566	96.107	103.738	97.577	0		
238.934	83.386	98.481	102.494	0		
239.302	82.708	101.703	111.312	0		
239.671	81.181	108.995	115.212	0		
240.039	73.547	109.164	116.229	0		
240.407	74.396	99.668	109.277	0		
240.776	83.725	102.551	104.021	0		
241.144	85.761	99.159	97.577	0		
241.512	78.976	94.580	97.916	0		
241.881	86.948	100.516	105.038	0		
242.249	87.796	98.990	105.377	0		
242.617	82.538	102.042	101.816	0		
242.985	83.725	105.434	109.956	0		
243.353	93.563	113.742	105.377	0		
243.722	91.358	104.586	97.746	0		
244.090	93.563	109.843	100.629	0		
244.458	87.457	99.838	104.529	0		
244.826	92.545	100.686	94.524	0		
245.194	86.439	90.849	96.220	0		
245.562	88.305	98.311	99.442	0		
245.930	85.930	94.920	88.757	0		
246.298	97.294	98.142	84.178	0		
246.666	86.100	92.036	86.044	0		
247.034	84.404	97.633	77.732	0		
247.402	79.994	96.785	79.089	0		
247.770	80.503	91.188	86.722	0		
248.138	73.378	93.902	84.347	0		
248.506	73.717	96.785	80.276	0		
248.874	71.172	84.574	89.097	0		
249.242	75.922	83.047	84.856	0		
249.610	81.011	85.930	81.464	0		
249.977	89.662	86.948	81.125	0		
250.345	90.001	85.252	90.114	0		
250.713	92.376	92.545	95.202	0		
251.081	90.001	92.206	95.033	0		
251.448	83.217	93.393	99.442	0		
251.816	74.396	93.054	105.716	0		
252.184	78.637	92.206	94.863	0		
252.551	74.226	85.591	91.980	0		
252.919	74.565	84.234	93.167	0		
253.287	70.155	90.680	99.951	0		
253.654	77.110	88.983	104.360	0		
254.022	83.556	90.171	118.942	0		
254.390	92.884	95.598	116.738	0		
254.757	88.135	100.007	120.807	0		
255.125	89.492	95.937	113.516	0		
255.492	85.591	102.212	102.664	0		
255.860	82.199	98.990	97.577	0		
256.227	78.467	94.072	100.120	0		
256.595	89.492	87.627	97.916	0		
256.962	95.598	87.627	96.220	0		
257.329	101.873	85.761	100.968	0		
257.697	104.416	88.983	97.407	0		
258.064	103.399	90.001	95.541	0		
258.431	95.428	91.867	93.167	0		
258.799	95.428	87.966	99.781	0		
259.166	84.913	84.234	102.494	0		
259.533	79.315	84.913	101.138	0		
259.901	78.297	92.545	104.360	0		
260.268	74.905	102.551	101.138	0		
260.635	77.449	105.603	94.524	0		
261.002	78.637	107.638	92.319	0		
261.369	82.029	106.282	99.103	0		
261.737	87.966	100.686	99.272	0		
262.104	87.287	88.135	109.447	0		
262.471	79.315	92.545	117.416	0		
262.838	82.708	97.294	117.586	0		
263.205	81.690	103.060	122.841	0		
263.572	76.262	110.860	118.942	0		
263.939	79.146	119.846	113.516	0		
264.306	84.065	121.033	105.886	0		
264.673	77.788	112.895	108.260	0		
265.040	66.252	111.030	97.237	0		
265.407	74.735	112.725	104.021	0		
265.774	76.601	108.825	107.243	0		
266.141	64.386	116.794	106.395	0		
266.508	68.967	120.355	106.056	0		
266.874	80.672	121.542	102.664	0		
267.241	79.654	115.608	102.494	0		
267.608	82.199	125.271	94.354	0		
267.975	92.206	108.825	101.477	0		
268.342	94.580	111.708	104.529	0		
268.708	88.475	109.503	112.160	0		
269.075	90.340	112.047	107.073	0		
269.442	87.457	95.768	118.264	0		
269.808	90.849	97.294	111.821	0		
270.175	91.528	91.528	114.873	0		
270.542	95.089	87.118	120.468	0		
270.908	85.761	80.333	112.838	0		
271.275	87.796	82.029	102.664	0		
271.641	86.609	83.895	111.990	0		
272.008	81.351	82.877	104.699	0		
272.375	89.153	79.994	110.634	0		
272.741	94.580	86.948	110.125	0		
273.107	97.124	93.224	102.325	0		
273.474	96.276	94.580	94.015	0		
273.840	94.241	92.884	95.202	0		
274.207	95.937	107.130	86.722	0		
274.573	92.715	100.177	101.647	0		
274.940	86.439	90.171	110.803	0		
275.306	91.358	86.439	115.890	0		
275.672	97.633	91.697	118.433	0		
276.039	95.428	89.832	112.329	0		
276.405	97.294	97.124	110.464	0		
276.771	91.019	98.990	116.907	0		
277.137	90.510	108.995	114.534	0		
277.504	89.662	111.708	115.212	0		
277.870	78.128	108.995	118.942	0		
278.236	77.619	100.686	109.277	0		
278.602	92.545	112.047	113.516	0		
278.968	95.259	110.182	106.056	0		
279.334	92.036	104.077	105.886	0		
279.700	99.499	103.568	113.516	0		
280.066	101.703	111.708	117.416	0		
280.432	95.089	107.638	115.042	0		
280.798	88.983	108.995	113.686	0		
281.164	92.206	107.130	107.921	0		
281.530	87.457	109.503	104.190	0		
281.896	83.556	102.890	106.395	0		
282.262	86.609	105.434	98.085	0		
282.628	82.029	107.130	98.255	0		
282.994	81.181	110.351	99.442	0		
283.360	86.779	104.247	97.916	0		
283.726	87.627	101.364	94.693	0		
284.092	87.966	98.651	99.781	0		
284.457	96.785	89.662	99.103	0		
284.823	95.768	91.528	99.612	0		
285.189	95.259	88.305	93.506	0		
285.555	90.171	105.434	98.764	0		
285.920	95.259	114.082	106.734	0		
286.286	93.732	118.998	116.229	0		
286.652	93.732	116.964	115.721	0		
287.017	92.715	120.694	108.769	0		
287.383	97.124	106.451	106.564	0		
287.749	86.948	96.107	101.138	0		
288.114	87.457	95.089	100.290	0		
288.480	89.323	98.820	100.290	0		
288.845	92.715	99.159	113.516	0		
289.211	99.499	93.732	109.616	0		
289.576	106.621	93.732	104.699	0		
289.942	107.130	92.715	105.377	0		
290.307	104.077	94.241	103.342	0		
290.672	98.481	103.908	101.986	0		
291.038	97.463	104.925	109.956	0		
291.403	94.580	110.182	107.243	0		
291.768	89.492	111.538	93.676	0		
292.134	97.463	112.386	97.746	0		
292.499	95.937	106.790	107.073	0		
292.864	99.329	117.133	99.272	0		
293.230	97.124	119.677	101.138	0		
293.595	98.481	118.490	110.634	0		
293.960	98.481	113.403	110.464	0		
294.325	92.884	107.469	99.272	0		
294.690	88.135	104.077	94.354	0		
295.055	91.188	97.972	103.003	0		
295.421	97.972	101.025	96.729	0		
295.786	95.259	104.247	93.167	0		
296.151	105.264	114.251	95.541	0		
296.516	101.194	109.503	101.307	0		
296.881	98.311	111.369	95.711	0		
297.246	91.867	104.416	98.933	0		
297.611	92.715	100.007	105.377	0		
297.976	100.007	94.072	105.038	0		
298.341	109.673	95.089	102.494	0		
298.705	111.538	93.224	109.447	0		
299.070	108.995	100.516	115.042	0		
299.435	101.703	108.316	104.699	0		
299.800	97.803	107.299	102.834	0		
300.165	89.832	105.773	106.395	0.362927520109183		
300.530	87.966	108.147	92.997	0.0605436339598066		
300.894	97.972	110.860	100.799	0.0265313445375845		
301.259	100.346	110.521	114.703	0.115458922145484		
301.624	95.768	117.642	110.464	0.145120003549588		
301.988	96.616	125.441	116.229	0.14544865452844		
302.353	93.902	117.812	114.873	0.142388369843371		
302.718	84.404	114.590	114.534	0.203767918189303		
303.082	83.725	114.251	107.412	0.203440711970915		
303.447	81.520	113.912	114.364	0.376885559601938		
303.811	73.547	115.777	111.143	0.543526703834663		
304.176	73.887	124.763	113.177	0.294769954504271		
304.541	81.860	126.458	103.512	0.161517076161619		
304.905	87.966	118.320	104.360	0.137608267767417		
305.270	89.492	116.116	96.559	0.0721508168172444		
305.634	90.171	119.168	82.821	-0.0726799860901347		
305.998	95.089	119.168	90.962	-0.0455111171419757		
306.363	84.913	114.421	105.038	0.179280485609038		
306.727	79.994	115.268	110.464	0.350111046574369		
307.091	89.662	111.708	117.586	0.552769261231469		
307.456	105.434	106.112	125.723	0.349109182226886		
307.820	101.703	108.316	125.215	0.262001639634912		
308.184	104.756	108.486	119.111	0.102805253184887		
308.549	107.638	118.490	119.451	0.0801673205548003		
308.913	99.159	123.067	121.146	0.178299435739306		
309.277	90.001	124.085	124.706	0.300528159927589		
309.641	92.036	121.881	119.959	0.179577808752065		
310.005	90.340	117.303	115.212	0.160423282094596		
310.370	99.159	114.929	111.143	0.0781852020351236		
310.734	104.247	117.133	105.377	0.00944260327456527		
311.098	104.756	120.355	104.699	-0.000504469490129182		
311.462	102.551	120.863	104.529	0.0144941439227801		
311.826	107.299	133.069	100.629	-0.0431537332080976		
312.190	97.803	136.120	103.682	0.0405760712634697		
312.554	99.329	130.866	112.499	0.100928506404737		
312.918	98.481	135.273	107.582	0.0825736205819495		
313.282	102.381	138.663	110.464	0.0638214019000319		
313.646	104.416	132.561	114.364	0.0753574862397248		
314.010	111.708	127.306	110.125	-0.0122579565255345		
314.373	106.790	125.949	111.312	0.0403502341368515		
314.737	105.095	114.251	114.703	0.109182485037613		
315.101	105.434	105.773	110.973	0.0495391789201445		
315.465	110.521	101.873	109.786	-0.00571730910001836		
315.829	100.855	105.943	106.734	0.0548129574415684		
316.192	100.007	101.025	104.529	0.0428356091771264		
316.556	98.481	99.838	105.716	0.111517357954855		
316.920	92.376	101.364	106.734	0.340191283336023		
317.283	82.368	108.486	104.190	0.293063087305991		
317.647	84.234	102.551	106.225	0.305259266268732		
318.011	83.386	104.416	105.716	0.34165963898477		
318.374	81.351	99.668	96.729	0.21510199056777		
318.738	78.128	108.656	101.647	0.383430731160057		
319.101	81.011	106.621	99.951	0.289039167766888		
319.465	82.877	112.047	98.933	0.192895236899076		
319.828	81.011	126.288	96.050	0.203570737431856		
320.192	83.217	140.019	102.155	0.297108800127029		
320.555	85.930	133.069	101.986	0.224491234308953		
320.919	83.556	131.713	103.682	0.235468642942697		
321.282	91.528	124.085	97.746	0.0568245912806493		
321.646	92.884	111.708	96.898	0.0296319050419488		
322.009	99.668	107.469	99.103	-0.00416992431209017		
322.372	97.633	101.194	102.155	0.0364597617638133		
322.736	92.715	96.446	110.295	0.163104689638731		
323.099	81.011	102.721	122.672	0.514026765163644		
323.462	83.386	94.580	122.333	0.57917028532045		
323.825	73.887	96.446	116.399	0.582659044201665		
324.189	81.351	103.568	111.143	0.432657601245761		
324.552	88.135	110.012	100.120	0.178967260561236		
324.915	97.463	115.608	91.132	-0.11945930234282		
325.278	98.481	130.526	99.442	0.0176038691686455		
325.641	101.534	134.764	109.277	0.103529348944938		
326.004	95.768	127.475	107.073	0.126510147620032		
326.367	92.715	117.642	105.377	0.164893986532902		
326.730	89.662	108.486	111.651	0.266109744422809		
327.093	90.001	101.194	104.021	0.166166747831544		
327.456	92.036	89.832	102.664	0.0985798872452983		
327.819	93.563	101.194	98.933	0.0467491714864537		
328.182	92.545	103.229	109.956	0.173396871902223		
328.545	93.224	98.481	104.699	0.139509852625884		
328.908	90.680	92.206	102.494	0.15172629540851		
329.271	89.323	90.680	104.190	0.223519255234925		
329.634	85.082	85.252	108.260	0.304950897301701		
329.996	81.520	96.107	105.716	0.336480243153886		
330.359	75.753	105.603	101.307	0.321636080059419		
330.722	78.806	114.082	103.512	0.231815859050147		
331.085	72.699	120.694	97.577	0.266046328915679		
331.447	84.913	117.473	92.828	0.0779070765911628		
331.810	84.913	113.064	91.471	0.0674563228323309		
332.173	87.966	103.060	96.220	0.119632049800504		
332.535	81.690	102.551	97.407	0.287703271963895		
332.898	90.849	97.972	100.629	0.148469787197855		
333.260	89.323	100.346	111.482	0.42205359223747		
333.623	92.884	97.463	112.838	0.329420149564546		
333.985	94.411	104.077	117.077	0.445732946067634		
334.348	95.259	101.873	115.551	0.288389201545931		
334.710	98.142	100.346	117.416	0.248243893309972		
335.073	99.838	104.416	106.734	0.0766861992364537		
335.435	104.247	102.721	105.208	0.0131224773260827		
335.798	101.703	105.773	98.933	-0.0450872966767838		
336.160	102.551	108.486	96.729	-0.0856303801807904		
336.522	96.107	119.338	94.524	-0.0251217078632184		
336.885	87.287	122.220	98.933	0.300123719096649		
337.247	88.475	127.645	92.828	0.0763384414118161		
337.609	93.393	130.018	93.845	0.00711965779222615		
337.971	107.299	137.307	95.881	-0.138530565275337		
338.334	111.538	127.475	101.307	-0.113023167481311		
338.696	121.881	118.659	96.898	-0.265511683255981		
339.058	115.438	118.151	100.799	-0.143669367870878		
339.420	109.673	110.182	105.038	-0.0413920503085692		
339.782	93.054	96.276	104.190	0.119685505668538		
340.144	92.376	103.738	110.295	0.20493234308002		
340.506	86.948	106.112	113.008	0.411274763531527		
340.868	95.937	98.481	113.347	0.224422100820152		
341.230	101.534	96.955	113.177	0.146547467596797		
341.592	108.316	105.434	113.177	0.0547513501524863		
341.954	104.925	98.651	92.828	-0.140762966873374		
342.316	100.346	96.446	94.015	-0.060063581417371		
342.678	91.697	102.381	93.506	0.0180537253317009		
343.040	92.376	101.703	89.605	-0.0283788729385849		
343.402	91.528	105.095	91.641	0.00108910024922884		
343.764	94.580	109.503	101.816	0.071487862499644		
344.126	95.598	115.099	98.424	0.0277062954242017		
344.487	102.721	110.860	102.664	-0.000550867683083883		
344.849	93.902	120.355	106.734	0.158433687968379		
345.211	85.082	113.234	109.447	0.266797956339493		
345.572	81.860	110.351	108.260	0.25809106828135		
345.934	83.386	108.486	114.703	0.38396241958427		
346.296	79.994	114.421	115.381	0.386015463582355		
346.657	76.771	101.025	104.869	0.313848536878751		
347.019	83.047	99.838	98.424	0.165800524163264		
347.380	82.877	101.873	103.342	0.177398470590312		
347.742	82.538	107.469	105.547	0.199018620822107		
348.104	89.832	109.843	101.138	0.0851566238093172		
348.465	100.516	118.490	110.125	0.0669081681372019		
348.826	100.686	123.067	112.838	0.0872824076210013		
349.188	99.159	132.222	116.738	0.1265311585799		
349.549	90.849	124.254	116.568	0.195888408083928		
349.911	87.796	120.694	119.620	0.237358014308164		
350.272	84.065	131.544	119.111	0.263492123423895		
350.633	84.743	133.239	115.212	0.271699113887057		
350.995	97.463	127.984	109.616	0.117895391460591		
351.356	103.399	127.814	114.195	0.110940675574284		
351.717	100.855	129.679	119.959	0.201328475535502		
352.078	101.534	121.033	129.114	0.25193280531389		
352.440	104.586	120.185	133.521	0.271194033108531		
352.801	94.072	118.151	129.283	0.334108472658454		
353.162	91.188	118.490	125.893	0.32072157269033		
353.523	90.340	116.286	121.824	0.242811302474384		
353.884	88.814	109.843	112.160	0.175685310505796		
354.245	79.824	107.638	108.769	0.200399806673111		
354.606	84.234	120.694	102.494	0.122872829702956		
354.967	90.849	122.220	105.038	0.0948985510067281		
355.328	95.598	124.932	105.038	0.0640886800263496		
355.689	99.329	124.593	102.664	0.0213594624979344		
356.050	109.843	123.745	105.038	-0.0329323710236198		
356.411	105.095	110.351	102.494	-0.017317696150628		
356.772	101.703	109.503	92.319	-0.0690227489718042		
357.133	100.855	105.264	92.489	-0.0583081112631629		
357.493	96.276	106.112	108.260	0.0810846074337761		
357.854	94.920	113.234	111.821	0.115619175543105		
358.215	91.358	112.556	123.350	0.238605520904944		
358.576	101.703	109.503	117.077	0.116177002767886		
358.936	101.703	115.099	110.464	0.06373724932591		
359.297	101.534	117.981	105.547	0.0268987007266587		
359.658	92.545	116.794	98.933	0.0418661738019435		
360.018	97.294	115.268	96.220	-0.00708845685006079		
360.379	87.287	124.254	100.460	0.0807242090215015		
360.739	81.351	120.016	101.647	0.118618896581554		
361.100	92.376	115.099	97.916	0.0329399360302843		
361.461	94.580	108.486	104.529	0.0617372013701173		
361.821	92.884	112.047	117.077	0.146279093690076		
362.181	91.358	108.147	120.129	0.176814714873095		
362.542	95.259	105.603	124.198	0.178138263581015		
362.902	81.860	106.790	118.603	0.227392919898217		
363.263	86.779	109.334	116.229	0.185480735210933		
363.623	95.598	104.077	112.669	0.106037310923337		
363.983	99.838	95.937	106.564	0.0411594078474201		
364.344	97.972	98.820	111.990	0.0914621646967404		
364.704	102.042	101.534	116.399	0.100346589107708		
365.064	105.943	94.241	115.042	0.0610535141663888		
365.424	106.112	96.616	111.482	0.038819301930477		
365.785	100.516	104.247	121.994	0.154730003595469		
366.145	98.820	97.294	116.399	0.126825858033407		
366.505	97.633	102.551	114.703	0.126940135194458		
366.865	86.948	109.503	114.025	0.20359116851939		
367.225	77.958	106.451	118.942	0.307232534023456		
367.585	85.930	109.843	115.212	0.219286846994299		
367.945	86.948	114.421	109.786	0.162566820352408		
368.305	86.948	113.403	113.347	0.184022263000796		
368.665	93.393	110.351	119.281	0.183025675670003		
369.025	93.393	117.642	117.416	0.164576227162306		
369.385	87.457	115.947	124.876	0.240374150827084		
369.745	91.358	116.625	127.080	0.22369810953105		
