WaveLength	Dark	Reference	Samples	Energy	IrrCali	StrayLight
192.363	8009.835	8023.275	8012.985	0		
192.734	6044.038	6058.555	6058.302	0		
193.105	4847.009	4864.941	4860.526	0		
193.475	5118.775	5142.952	5132.100	0		
193.846	-65.517	-49.883	-49.600	0		
194.217	-54.981	-49.373	-43.653	0		
194.587	-48.524	-38.499	-52.658	0		
194.958	-39.859	-28.816	-44.333	0		
195.329	-29.665	-23.041	-32.270	0		
195.699	-24.909	-12.340	-24.966	0		
196.070	-27.457	-10.642	-18.172	0		
196.440	-21.682	-10.642	-15.114	0		
196.811	-10.982	-9.793	-5.094	0		
197.182	-10.132	-4.528	1.868	0		
197.552	-3.849	2.094	5.943	0		
197.923	8.716	4.811	15.451	0		
198.293	20.091	7.018	30.389	0		
198.663	21.789	14.489	27.334	0		
199.034	39.781	27.560	30.389	0		
199.404	49.454	31.804	36.500	0		
199.775	47.588	41.139	34.633	0		
200.145	38.763	49.624	37.858	0		
200.516	50.982	51.830	53.810	0		
200.886	48.776	51.491	59.240	0		
201.256	50.303	56.581	67.553	0		
201.627	57.090	69.137	74.170	0		
201.997	72.699	79.994	78.919	0		
202.367	77.280	80.503	82.990	0		
202.737	83.047	96.107	92.149	0		
203.108	86.100	95.937	102.155	0		
203.478	82.029	92.545	114.703	0		
203.848	79.315	89.832	122.672	0		
204.218	82.029	98.990	118.942	0		
204.588	76.601	90.849	118.942	0		
204.959	86.609	101.364	114.364	0		
205.329	94.241	101.025	110.295	0		
205.699	100.177	103.399	116.399	0		
206.069	93.054	98.820	118.433	0		
206.439	108.656	101.364	116.399	0		
206.809	97.124	100.516	110.973	0		
207.179	90.849	112.386	100.629	0		
207.549	95.598	116.286	99.442	0		
207.919	97.463	123.576	97.407	0		
208.289	97.294	115.777	102.325	0		
208.659	94.920	115.099	112.499	0		
209.029	90.680	103.060	118.942	0		
209.399	85.591	100.346	118.433	0		
209.769	81.690	101.364	120.976	0		
210.139	84.404	93.732	118.772	0		
210.509	89.492	100.007	114.873	0		
210.879	88.644	104.416	117.246	0		
211.249	89.662	99.668	115.042	0		
211.618	86.270	90.680	114.873	0		
211.988	74.565	105.773	113.516	0		
212.358	73.547	98.990	107.073	0		
212.728	81.351	97.803	101.307	0		
213.098	69.476	95.768	97.746	0		
213.467	78.637	102.212	92.149	0		
213.837	77.280	98.990	91.301	0		
214.207	72.699	98.651	84.178	0		
214.576	76.940	97.294	83.499	0		
214.946	83.725	105.603	82.142	0		
215.316	77.788	112.556	84.517	0		
215.685	75.414	104.416	87.909	0		
216.055	81.011	102.551	101.816	0		
216.425	75.074	110.351	104.360	0		
216.794	70.155	101.025	101.477	0		
217.164	66.592	86.270	104.699	0		
217.533	67.270	84.234	105.547	0		
217.903	68.797	93.054	94.863	0		
218.272	65.913	88.814	100.120	0		
218.642	66.422	90.680	100.968	0		
219.011	64.047	94.241	102.664	0		
219.381	76.092	100.855	92.319	0		
219.750	74.056	94.241	91.301	0		
220.120	80.842	94.241	84.008	0		
220.489	86.100	97.294	88.249	0		
220.858	89.323	99.159	81.803	0		
221.228	86.439	97.633	90.453	0		
221.597	87.966	101.703	90.284	0		
221.966	89.662	98.651	96.220	0		
222.336	86.270	96.276	92.489	0		
222.705	86.948	88.983	106.903	0		
223.074	82.538	101.703	107.073	0		
223.443	81.181	83.895	114.364	0		
223.813	78.128	87.118	112.329	0		
224.182	83.895	86.948	115.551	0		
224.551	81.351	97.803	102.155	0		
224.920	80.163	81.690	100.290	0		
225.289	86.439	91.528	93.676	0		
225.658	83.895	94.920	92.997	0		
226.027	79.146	91.019	95.372	0		
226.397	79.824	90.171	98.424	0		
226.766	77.788	94.750	104.869	0		
227.135	70.833	92.884	116.738	0		
227.504	70.324	86.270	120.298	0		
227.873	73.039	98.990	116.399	0		
228.242	74.396	101.703	113.008	0		
228.611	78.806	107.808	106.903	0		
228.980	74.735	117.981	103.173	0		
229.349	66.931	121.881	96.729	0		
229.717	64.047	110.860	90.793	0		
230.086	69.306	96.955	95.541	0		
230.455	59.296	86.948	96.559	0		
230.824	65.235	88.475	92.489	0		
231.193	78.128	84.404	94.015	0		
231.562	77.619	85.930	99.781	0		
231.931	75.583	101.873	94.693	0		
232.299	81.011	114.760	98.764	0		
232.668	75.244	101.873	100.968	0		
233.037	74.056	103.908	101.816	0		
233.406	74.226	107.299	108.599	0		
233.774	70.494	103.229	117.925	0		
234.143	68.967	86.948	120.637	0		
234.512	69.476	100.686	120.637	0		
234.880	71.342	99.668	120.129	0		
235.249	73.039	94.580	106.734	0		
235.617	77.449	91.358	95.202	0		
235.986	73.039	102.042	84.687	0		
236.355	70.494	93.902	89.775	0		
236.723	67.610	92.884	92.658	0		
237.092	77.110	99.159	102.155	0		
237.460	74.396	97.633	112.499	0		
237.829	87.118	95.259	114.534	0		
238.197	97.463	94.920	105.038	0		
238.566	96.107	103.738	99.442	0		
238.934	83.386	98.481	91.810	0		
239.302	82.708	101.703	93.167	0		
239.671	81.181	108.995	91.980	0		
240.039	73.547	109.164	100.799	0		
240.407	74.396	99.668	103.512	0		
240.776	83.725	102.551	107.751	0		
241.144	85.761	99.159	100.629	0		
241.512	78.976	94.580	97.068	0		
241.881	86.948	100.516	92.319	0		
242.249	87.796	98.990	90.453	0		
242.617	82.538	102.042	91.132	0		
242.985	83.725	105.434	97.068	0		
243.353	93.563	113.742	99.951	0		
243.722	91.358	104.586	95.541	0		
244.090	93.563	109.843	103.512	0		
244.458	87.457	99.838	105.377	0		
244.826	92.545	100.686	100.799	0		
245.194	86.439	90.849	98.085	0		
245.562	88.305	98.311	103.003	0		
245.930	85.930	94.920	101.307	0		
246.298	97.294	98.142	98.594	0		
246.666	86.100	92.036	95.541	0		
247.034	84.404	97.633	101.816	0		
247.402	79.994	96.785	101.986	0		
247.770	80.503	91.188	97.237	0		
248.138	73.378	93.902	103.851	0		
248.506	73.717	96.785	106.903	0		
248.874	71.172	84.574	102.155	0		
249.242	75.922	83.047	96.898	0		
249.610	81.011	85.930	96.389	0		
249.977	89.662	86.948	91.810	0		
250.345	90.001	85.252	86.044	0		
250.713	92.376	92.545	77.902	0		
251.081	90.001	92.206	84.856	0		
251.448	83.217	93.393	88.079	0		
251.816	74.396	93.054	95.881	0		
252.184	78.637	92.206	100.968	0		
252.551	74.226	85.591	110.634	0		
252.919	74.565	84.234	100.290	0		
253.287	70.155	90.680	102.325	0		
253.654	77.110	88.983	95.711	0		
254.022	83.556	90.171	97.068	0		
254.390	92.884	95.598	99.272	0		
254.757	88.135	100.007	108.938	0		
255.125	89.492	95.937	112.160	0		
255.492	85.591	102.212	122.333	0		
255.860	82.199	98.990	125.554	0		
256.227	78.467	94.072	119.451	0		
256.595	89.492	87.627	122.672	0		
256.962	95.598	87.627	116.907	0		
257.329	101.873	85.761	103.512	0		
257.697	104.416	88.983	96.389	0		
258.064	103.399	90.001	99.103	0		
258.431	95.428	91.867	94.524	0		
258.799	95.428	87.966	94.693	0		
259.166	84.913	84.234	102.494	0		
259.533	79.315	84.913	106.395	0		
259.901	78.297	92.545	110.973	0		
260.268	74.905	102.551	110.125	0		
260.635	77.449	105.603	115.551	0		
261.002	78.637	107.638	121.655	0		
261.369	82.029	106.282	116.907	0		
261.737	87.966	100.686	123.519	0		
262.104	87.287	88.135	130.809	0		
262.471	79.315	92.545	124.706	0		
262.838	82.708	97.294	117.077	0		
263.205	81.690	103.060	125.554	0		
263.572	76.262	110.860	108.430	0		
263.939	79.146	119.846	101.477	0		
264.306	84.065	121.033	111.143	0		
264.673	77.788	112.895	110.464	0		
265.040	66.252	111.030	108.938	0		
265.407	74.735	112.725	117.586	0		
265.774	76.601	108.825	117.416	0		
266.141	64.386	116.794	112.329	0		
266.508	68.967	120.355	106.225	0		
266.874	80.672	121.542	108.090	0		
267.241	79.654	115.608	103.173	0		
267.608	82.199	125.271	103.173	0		
267.975	92.206	108.825	99.103	0		
268.342	94.580	111.708	104.021	0		
268.708	88.475	109.503	102.325	0		
269.075	90.340	112.047	103.512	0		
269.442	87.457	95.768	106.564	0		
269.808	90.849	97.294	115.042	0		
270.175	91.528	91.528	111.651	0		
270.542	95.089	87.118	111.482	0		
270.908	85.761	80.333	111.482	0		
271.275	87.796	82.029	115.551	0		
271.641	86.609	83.895	107.412	0		
272.008	81.351	82.877	110.803	0		
272.375	89.153	79.994	109.277	0		
272.741	94.580	86.948	120.468	0		
273.107	97.124	93.224	116.738	0		
273.474	96.276	94.580	116.738	0		
273.840	94.241	92.884	112.499	0		
274.207	95.937	107.130	121.315	0		
274.573	92.715	100.177	115.890	0		
274.940	86.439	90.171	118.433	0		
275.306	91.358	86.439	125.893	0		
275.672	97.633	91.697	131.487	0		
276.039	95.428	89.832	125.384	0		
276.405	97.294	97.124	123.011	0		
276.771	91.019	98.990	120.976	0		
277.137	90.510	108.995	107.412	0		
277.504	89.662	111.708	99.272	0		
277.870	78.128	108.995	96.559	0		
278.236	77.619	100.686	99.781	0		
278.602	92.545	112.047	104.190	0		
278.968	95.259	110.182	120.298	0		
279.334	92.036	104.077	127.927	0		
279.700	99.499	103.568	129.453	0		
280.066	101.703	111.708	127.419	0		
280.432	95.089	107.638	120.129	0		
280.798	88.983	108.995	113.347	0		
281.164	92.206	107.130	107.921	0		
281.530	87.457	109.503	111.990	0		
281.896	83.556	102.890	111.312	0		
282.262	86.609	105.434	111.651	0		
282.628	82.029	107.130	116.568	0		
282.994	81.181	110.351	123.689	0		
283.360	86.779	104.247	115.042	0		
283.726	87.627	101.364	120.468	0		
284.092	87.966	98.651	123.689	0		
284.457	96.785	89.662	113.855	0		
284.823	95.768	91.528	105.547	0		
285.189	95.259	88.305	113.177	0		
285.555	90.171	105.434	111.651	0		
285.920	95.259	114.082	107.412	0		
286.286	93.732	118.998	105.716	0		
286.652	93.732	116.964	114.195	0		
287.017	92.715	120.694	107.243	0		
287.383	97.124	106.451	103.003	0		
287.749	86.948	96.107	104.699	0		
288.114	87.457	95.089	110.464	0		
288.480	89.323	98.820	98.764	0		
288.845	92.715	99.159	100.290	0		
289.211	99.499	93.732	95.541	0		
289.576	106.621	93.732	94.185	0		
289.942	107.130	92.715	92.489	0		
290.307	104.077	94.241	92.997	0		
290.672	98.481	103.908	97.916	0		
291.038	97.463	104.925	108.260	0		
291.403	94.580	110.182	109.616	0		
291.768	89.492	111.538	108.430	0		
292.134	97.463	112.386	116.399	0		
292.499	95.937	106.790	115.381	0		
292.864	99.329	117.133	106.225	0		
293.230	97.124	119.677	110.125	0		
293.595	98.481	118.490	105.886	0		
293.960	98.481	113.403	101.647	0		
294.325	92.884	107.469	103.682	0		
294.690	88.135	104.077	104.190	0		
295.055	91.188	97.972	108.430	0		
295.421	97.972	101.025	109.956	0		
295.786	95.259	104.247	110.295	0		
296.151	105.264	114.251	110.464	0		
296.516	101.194	109.503	114.364	0		
296.881	98.311	111.369	107.073	0		
297.246	91.867	104.416	111.482	0		
297.611	92.715	100.007	110.973	0		
297.976	100.007	94.072	102.664	0		
298.341	109.673	95.089	103.512	0		
298.705	111.538	93.224	108.938	0		
299.070	108.995	100.516	108.599	0		
299.435	101.703	108.316	112.838	0		
299.800	97.803	107.299	109.108	0		
300.165	89.832	105.773	105.038	0.333202608124008		
300.530	87.966	108.147	105.716	0.213585704326747		
300.894	97.972	110.860	107.921	0.0933860085324952		
301.259	100.346	110.521	106.225	0.0472771234339562		
301.624	95.768	117.642	116.907	0.208740805677009		
301.988	96.616	125.441	118.433	0.161793593651426		
302.353	93.902	117.812	110.973	0.115909372930099		
302.718	84.404	114.590	115.381	0.209501320626428		
303.082	83.725	114.251	117.246	0.287906036476242		
303.447	81.520	113.912	123.519	0.481943738098627		
303.811	73.547	115.777	126.232	0.761680000537465		
304.176	73.887	124.763	127.758	0.40415704517684		
304.541	81.860	126.458	124.706	0.319616388089454		
304.905	87.966	118.320	126.910	0.326890360330367		
305.270	89.492	116.116	122.672	0.338762722798947		
305.634	90.171	119.168	116.229	0.257678393769029		
305.998	95.089	119.168	116.907	0.24060722890927		
306.363	84.913	114.421	114.364	0.262358059019085		
306.727	79.994	115.268	102.664	0.260485443879448		
307.091	89.662	111.708	102.494	0.254030228100793		
307.456	105.434	106.112	115.212	0.168245149890685		
307.820	101.703	108.316	116.738	0.167539112679366		
308.184	104.756	108.486	117.586	0.0918780457839519		
308.549	107.638	118.490	126.571	0.128491922321491		
308.913	99.159	123.067	126.232	0.219543986331926		
309.277	90.001	124.085	120.807	0.266762205624135		
309.641	92.036	121.881	117.925	0.1664933668497		
310.005	90.340	117.303	121.994	0.204166092235262		
310.370	99.159	114.929	126.741	0.179955258303852		
310.734	104.247	117.133	120.129	0.132655866150555		
311.098	104.756	120.355	121.655	0.150819769161565		
311.462	102.551	120.863	134.199	0.231861641666865		
311.826	107.299	133.069	130.470	0.149911891782162		
312.190	97.803	136.120	131.657	0.233660112171295		
312.554	99.329	130.866	139.454	0.307496597792353		
312.918	98.481	135.273	139.962	0.376374542854155		
313.282	102.381	138.663	119.959	0.138791833584662		
313.646	104.416	132.561	130.809	0.19993290266097		
314.010	111.708	127.306	126.741	0.11643803194019		
314.373	106.790	125.949	123.689	0.150796884406152		
314.737	105.095	114.251	120.468	0.174685438890697		
315.101	105.434	105.773	133.352	0.249681641573582		
315.465	110.521	101.873	118.433	0.0615675646993379		
315.829	100.855	105.943	125.893	0.233453070336607		
316.192	100.007	101.025	127.249	0.258046468641015		
316.556	98.481	99.838	128.266	0.459070641131985		
316.920	92.376	101.364	114.873	0.533027435876249		
317.283	82.368	108.486	125.893	0.584525248855568		
317.647	84.234	102.551	122.502	0.531204781033494		
318.011	83.386	104.416	119.620	0.554389959090177		
318.374	81.351	99.668	115.721	0.480756812715758		
318.738	78.128	108.656	128.266	0.817413950441065		
319.101	81.011	106.621	126.232	0.690124856935821		
319.465	82.877	112.047	120.129	0.447536763870465		
319.828	81.011	126.288	121.315	0.545571752360073		
320.192	83.217	140.019	122.502	0.616308366329449		
320.555	85.930	133.069	121.485	0.497137633885794		
320.919	83.556	131.713	110.973	0.320777741506657		
321.282	91.528	124.085	116.568	0.228820122577377		
321.646	92.884	111.708	117.077	0.17860269915191		
322.009	99.668	107.469	116.399	0.123415886278689		
322.372	97.633	101.194	113.008	0.123954446356538		
322.736	92.715	96.446	116.399	0.219736830882752		
323.099	81.011	102.721	109.447	0.350851681688945		
323.462	83.386	94.580	113.516	0.448063059280435		
323.825	73.887	96.446	116.907	0.589630407268237		
324.189	81.351	103.568	118.942	0.545925461484957		
324.552	88.135	110.012	123.180	0.523316369647563		
324.915	97.463	115.608	127.419	0.565165191964582		
325.278	98.481	130.526	119.451	0.384128607982324		
325.641	101.534	134.764	117.586	0.214604003688644		
326.004	95.768	127.475	115.381	0.219483255992523		
326.367	92.715	117.642	112.669	0.25984293977782		
326.730	89.662	108.486	104.699	0.181975300017167		
327.093	90.001	101.194	107.073	0.202344200622347		
327.456	92.036	89.832	102.494	0.0970069109348242		
327.819	93.563	101.194	95.033	0.0127948348326844		
328.182	92.545	103.229	94.185	0.0163280036880347		
328.545	93.224	98.481	103.003	0.118893944154296		
328.908	90.680	92.206	107.582	0.217055796593585		
329.271	89.323	90.680	110.803	0.322941690969399		
329.634	85.082	85.252	129.792	0.588249799240191		
329.996	81.520	96.107	123.689	0.586413403680041		
330.359	75.753	105.603	121.485	0.575596110979747		
330.722	78.806	114.082	118.942	0.376596670034168		
331.085	72.699	120.694	123.350	0.541676237792868		
331.447	84.913	117.473	105.208	0.199759907554962		
331.810	84.913	113.064	115.721	0.316878417675062		
332.173	87.966	103.060	109.277	0.308886656440559		
332.535	81.690	102.551	104.190	0.411873550634776		
332.898	90.849	97.972	101.138	0.156193132007935		
333.260	89.323	100.346	104.699	0.292866428221268		
333.623	92.884	97.463	99.612	0.111060535780604		
333.985	94.411	104.077	113.855	0.382382399716061		
334.348	95.259	101.873	120.298	0.355856483190102		
334.710	98.142	100.346	131.148	0.425107079098581		
335.073	99.838	104.416	136.064	0.402840131555296		
335.435	104.247	102.721	138.098	0.46227566671261		
335.798	101.703	105.773	135.386	0.548278966071748		
336.160	102.551	108.486	130.979	0.418082537406484		
336.522	96.107	119.338	120.129	0.381248177475334		
336.885	87.287	122.220	112.329	0.645355456092975		
337.247	88.475	127.645	110.973	0.394533939152224		
337.609	93.393	130.018	110.125	0.263399446608206		
337.971	107.299	137.307	108.090	0.00960036634888213		
338.334	111.538	127.475	108.430	-0.0343424672841221		
338.696	121.881	118.659	110.125	-0.124935941543574		
339.058	115.438	118.151	100.120	-0.150326526318499		
339.420	109.673	110.182	98.424	-0.100455757082912		
339.782	93.054	96.276	103.512	0.112395513805386		
340.144	92.376	103.738	91.132	-0.0142242069579526		
340.506	86.948	106.112	98.424	0.181120816068724		
340.868	95.937	98.481	116.229	0.261578005336677		
341.230	101.534	96.955	111.990	0.131609177304959		
341.592	108.316	105.434	105.547	-0.0311970828758384		
341.954	104.925	98.651	116.738	0.137452751851643		
342.316	100.346	96.446	113.516	0.124937860247578		
342.678	91.697	102.381	105.377	0.136520753340009		
343.040	92.376	101.703	113.347	0.214835429377253		
343.402	91.528	105.095	106.395	0.143202935209208		
343.764	94.580	109.503	114.873	0.200484098527735		
344.126	95.598	115.099	118.772	0.227161577146501		
344.487	102.721	110.860	120.129	0.169647998853709		
344.849	93.902	120.355	117.077	0.286138529581612		
345.211	85.082	113.234	122.163	0.406044074788032		
345.572	81.860	110.351	123.011	0.402296110865314		
345.934	83.386	108.486	122.333	0.47750359637251		
346.296	79.994	114.421	121.315	0.450745082931137		
346.657	76.771	101.025	116.907	0.448319946753814		
347.019	83.047	99.838	115.212	0.346802196056675		
347.380	82.877	101.873	107.582	0.214146391474009		
347.742	82.538	107.469	101.307	0.162348906045085		
348.104	89.832	109.843	91.810	0.0149033138818671		
348.465	100.516	118.490	94.693	-0.0405425458882396		
348.826	100.686	123.067	96.389	-0.030856615308727		
349.188	99.159	132.222	91.810	-0.0528994099736304		
349.549	90.849	124.254	94.524	0.0279880701754431		
349.911	87.796	120.694	103.512	0.117215697413519		
350.272	84.065	131.544	104.021	0.150035235177691		
350.633	84.743	133.239	111.990	0.242971642452491		
350.995	97.463	127.984	114.364	0.163951789335005		
351.356	103.399	127.814	108.769	0.0551818620179596		
351.717	100.855	129.679	100.968	0.00119143975104019		
352.078	101.534	121.033	99.951	-0.0144578990311321		
352.440	104.586	120.185	91.980	-0.11814958550638		
352.801	94.072	118.151	92.997	-0.0101919070752521		
353.162	91.188	118.490	92.149	0.00888186136041852		
353.523	90.340	116.286	101.477	0.0858889639354346		
353.884	88.814	109.843	99.442	0.0799795890531221		
354.245	79.824	107.638	105.886	0.180441490875895		
354.606	84.234	120.694	110.464	0.176501664319099		
354.967	90.849	122.220	124.198	0.223040538433584		
355.328	95.598	124.932	120.976	0.172292440901416		
355.689	99.329	124.593	117.925	0.119094345634467		
356.050	109.843	123.745	113.855	0.0275066405172107		
356.411	105.095	110.351	111.312	0.0414095094805757		
356.772	101.703	109.503	103.851	0.0157992032955482		
357.133	100.855	105.264	107.412	0.0456965171162725		
357.493	96.276	106.112	110.125	0.0937051320965366		
357.854	94.920	113.234	115.381	0.139977168269974		
358.215	91.358	112.556	112.838	0.160205457854575		
358.576	101.703	109.503	129.283	0.208418700443356		
358.936	101.703	115.099	129.622	0.203111520860781		
359.297	101.534	117.981	122.502	0.140539705304528		
359.658	92.545	116.794	119.111	0.174110804240716		
360.018	97.294	115.268	123.180	0.170839183242083		
360.379	87.287	124.254	105.716	0.112940739018662		
360.739	81.351	120.016	104.360	0.134476430448263		
361.100	92.376	115.099	110.634	0.108558361155435		
361.461	94.580	108.486	109.786	0.0943564753646044		
361.821	92.884	112.047	109.786	0.102195142766335		
362.181	91.358	108.147	108.599	0.105957815928243		
362.542	95.259	105.603	102.494	0.0445408460410005		
362.902	81.860	106.790	111.482	0.183322162628238		
363.263	86.779	109.334	114.534	0.174802388571913		
363.623	95.598	104.077	116.738	0.131314258102891		
363.983	99.838	95.937	120.468	0.126233841630816		
364.344	97.972	98.820	134.538	0.238578067438614		
364.704	102.042	101.534	125.384	0.16315245780567		
365.064	105.943	94.241	118.942	0.087217098000491		
365.424	106.112	96.616	111.821	0.0412709564165651		
365.785	100.516	104.247	111.482	0.0789991309975727		
366.145	98.820	97.294	108.938	0.072999771356415		
366.505	97.633	102.551	107.243	0.0714598315979955		
366.865	86.948	109.503	112.329	0.190842259079891		
367.225	77.958	106.451	116.060	0.285625665527463		
367.585	85.930	109.843	114.534	0.214207786986535		
367.945	86.948	114.421	114.534	0.196361782371793		
368.305	86.948	113.403	120.976	0.237207517484457		
368.665	93.393	110.351	125.723	0.228572724243465		
369.025	93.393	117.642	121.655	0.193613761332739		
369.385	87.457	115.947	127.249	0.255620535797436		
369.745	91.358	116.625	128.436	0.232190930735666		
