WaveLength	Dark	Reference	Samples	Energy	IrrCali	StrayLight
192.363	8140.808	8149.240	8011.043	0		
192.734	6150.606	6153.213	6045.665	0		
193.105	4940.826	4940.617	4858.425	0		
193.475	5202.069	5197.113	5132.905	0		
193.846	-43.633	-58.636	-59.796	0		
194.217	-41.384	-49.220	-50.280	0		
194.587	-40.125	-44.872	-46.372	0		
194.958	-36.377	-40.735	-43.143	0		
195.329	-31.401	-34.738	-34.649	0		
195.699	-26.275	-27.304	-23.267	0		
196.070	-19.650	-21.968	-15.284	0		
196.440	-14.765	-14.685	-3.736	0		
196.811	-12.457	-8.721	-2.887	0		
197.182	-6.103	0.180	7.301	0		
197.552	3.516	9.978	15.960	0		
197.923	11.726	17.768	19.016	0		
198.293	20.624	23.160	25.467	0		
198.663	32.247	28.702	29.541	0		
199.034	37.488	34.543	27.334	0		
199.404	41.561	37.119	31.238	0		
199.775	46.233	41.611	37.518	0		
200.145	52.612	45.505	45.664	0		
200.516	56.625	53.051	62.972	0		
200.886	63.062	58.531	62.294	0		
201.256	63.122	63.891	74.339	0		
201.627	68.451	67.753	81.633	0		
201.997	71.864	74.339	76.714	0		
202.367	74.199	79.548	84.178	0		
202.737	75.247	84.218	96.389	0		
203.108	84.407	84.966	86.213	0		
203.478	89.286	89.246	91.641	0		
203.848	90.394	90.833	98.594	0		
204.218	93.327	90.054	86.383	0		
204.588	97.187	91.641	89.945	0		
204.959	98.863	95.921	97.916	0		
205.329	99.941	97.327	97.237	0		
205.699	102.485	98.345	103.512	0		
206.069	101.736	101.577	111.143	0		
206.439	104.519	101.128	105.547	0		
206.809	101.228	101.756	106.903	0		
207.179	102.185	104.988	105.716	0		
207.549	101.497	109.387	99.103	0		
207.919	102.844	110.285	104.360	0		
208.289	98.714	110.823	105.038	0		
208.659	98.235	108.669	97.407	0		
209.029	97.098	106.574	98.255	0		
209.399	95.003	101.248	101.477	0		
209.769	95.212	101.457	93.337	0		
210.139	92.578	98.943	99.442	0		
210.509	96.409	100.769	104.190	0		
210.879	94.135	96.040	100.799	0		
211.249	96.140	95.112	91.641	0		
211.618	94.644	93.885	89.266	0		
211.988	103.023	95.681	82.142	0		
212.358	100.749	93.077	76.544	0		
212.728	101.856	95.292	68.741	0		
213.098	97.906	95.202	76.036	0		
213.467	96.888	93.466	78.071	0		
213.837	92.459	91.940	88.927	0		
214.207	91.321	89.905	97.068	0		
214.576	91.022	88.288	107.412	0		
214.946	91.710	89.097	106.734	0		
215.316	92.698	90.324	103.342	0		
215.685	90.843	92.179	95.372	0		
216.055	91.710	93.197	91.980	0		
216.425	89.346	93.227	89.605	0		
216.794	87.580	94.544	86.383	0		
217.164	89.107	92.928	85.195	0		
217.533	90.214	90.862	91.132	0		
217.903	88.747	89.486	88.418	0		
218.272	87.909	92.269	89.945	0		
218.642	89.645	90.773	91.132	0		
219.011	86.413	88.618	95.372	0		
219.381	83.898	89.875	93.845	0		
219.750	83.030	94.215	100.120	0		
220.120	83.689	94.604	102.155	0		
220.489	80.576	95.771	103.173	0		
220.858	81.444	99.721	107.412	0		
221.228	81.414	94.574	103.682	0		
221.597	81.683	91.581	101.816	0		
221.966	79.378	86.762	101.477	0		
222.336	81.534	85.385	93.506	0		
222.705	81.623	80.925	84.347	0		
223.074	82.312	87.181	91.641	0		
223.443	83.419	87.540	96.389	0		
223.813	85.365	88.887	98.764	0		
224.182	86.083	86.223	102.494	0		
224.551	86.922	88.049	103.851	0		
224.920	89.017	82.871	101.138	0		
225.289	90.124	79.488	93.845	0		
225.658	89.975	80.536	92.828	0		
226.027	90.633	85.774	99.272	0		
226.397	87.161	87.151	99.612	0		
226.766	88.089	88.648	93.506	0		
227.135	82.970	93.377	105.038	0		
227.504	85.874	93.616	98.933	0		
227.873	86.473	92.838	100.968	0		
228.242	89.945	92.748	110.125	0		
228.611	89.136	94.424	107.921	0		
228.980	95.901	93.616	98.594	0		
229.349	96.918	90.443	97.237	0		
229.717	97.128	87.031	87.400	0		
230.086	93.985	87.121	79.598	0		
230.455	92.279	86.941	80.785	0		
230.824	87.909	86.283	80.616	0		
231.193	82.821	92.359	84.347	0		
231.562	82.551	94.813	86.892	0		
231.931	87.939	95.142	86.552	0		
232.299	88.687	95.651	89.097	0		
232.668	90.423	96.100	96.729	0		
233.037	95.092	91.820	92.149	0		
233.406	94.494	89.665	102.325	0		
233.774	90.902	87.151	108.090	0		
234.143	91.501	84.517	109.616	0		
234.512	91.531	86.373	102.834	0		
234.880	90.034	87.301	100.120	0		
235.249	88.239	90.084	93.506	0		
235.617	91.351	88.258	90.284	0		
235.986	92.848	90.892	84.178	0		
236.355	92.968	93.317	86.213	0		
236.723	94.254	96.429	100.290	0		
237.092	99.133	94.873	104.869	0		
237.460	98.414	100.380	106.564	0		
237.829	96.768	100.529	114.534	0		
238.197	99.761	94.903	114.534	0		
238.566	99.193	94.185	109.447	0		
238.934	100.300	92.239	111.651	0		
239.302	99.073	87.331	110.973	0		
239.671	100.120	84.128	108.260	0		
240.039	98.265	83.619	111.651	0		
240.407	99.612	78.081	111.651	0		
240.776	95.182	79.877	102.325	0		
241.144	95.302	83.469	101.647	0		
241.512	92.638	85.385	98.594	0		
241.881	92.339	87.959	91.980	0		
242.249	88.867	91.581	84.347	0		
242.617	85.934	89.725	88.757	0		
242.985	87.760	88.318	85.195	0		
243.353	88.538	88.288	94.015	0		
243.722	88.089	90.833	106.395	0		
244.090	90.543	90.114	104.021	0		
244.458	94.314	91.461	99.612	0		
244.826	95.003	91.042	98.764	0		
245.194	97.427	89.186	102.325	0		
245.562	95.152	86.912	93.506	0		
245.930	94.344	88.348	104.360	0		
246.298	96.379	92.389	109.956	0		
246.666	97.936	93.107	122.333	0		
247.034	95.302	95.442	117.246	0		
247.402	96.140	97.058	112.838	0		
247.770	95.571	96.010	116.907	0		
248.138	96.290	97.986	111.990	0		
248.506	90.753	99.093	109.277	0		
248.874	93.626	99.482	112.329	0		
249.242	95.601	99.093	116.399	0		
249.610	96.439	99.512	117.246	0		
249.977	90.962	95.891	123.519	0		
250.345	93.446	98.494	107.243	0		
250.713	90.783	98.225	105.547	0		
251.081	90.513	93.107	108.938	0		
251.448	90.423	93.436	100.460	0		
251.816	91.321	95.891	103.003	0		
252.184	90.094	95.442	113.347	0		
252.551	91.531	96.908	109.277	0		
252.919	89.555	101.816	106.056	0		
253.287	86.323	103.163	103.512	0		
253.654	93.357	99.991	102.494	0		
254.022	93.895	95.023	104.021	0		
254.390	91.681	92.628	106.395	0		
254.757	96.828	89.815	109.447	0		
255.125	100.330	87.899	114.364	0		
255.492	97.038	86.073	104.529	0		
255.860	96.260	91.790	102.664	0		
256.227	96.948	95.292	103.342	0		
256.595	93.746	99.602	95.881	0		
256.962	96.409	99.093	94.863	0		
257.329	99.312	100.170	99.103	0		
257.697	98.325	96.818	110.295	0		
258.064	100.958	96.100	104.360	0		
258.431	101.497	96.788	110.125	0		
258.799	100.749	94.664	107.751	0		
259.166	97.606	91.281	110.803	0		
259.533	100.719	90.803	93.845	0		
259.901	97.726	86.463	101.477	0		
260.268	97.696	83.858	106.395	0		
260.635	99.402	90.354	106.903	0		
261.002	98.863	93.197	112.499	0		
261.369	95.601	92.389	125.045	0		
261.737	96.768	92.269	124.537	0		
262.104	99.282	91.850	120.129	0		
262.471	94.733	90.503	124.028	0		
262.838	96.589	92.000	112.499	0		
263.205	95.930	94.693	109.447	0		
263.572	93.746	98.764	109.786	0		
263.939	91.172	99.632	117.586	0		
264.306	94.524	100.440	111.482	0		
264.673	97.217	102.804	116.399	0		
265.040	98.923	98.824	113.347	0		
265.407	98.893	100.888	105.547	0		
265.774	95.871	102.115	89.775	0		
266.141	94.075	101.337	95.202	0		
266.508	94.284	99.931	88.927	0		
266.874	92.698	99.991	96.898	0		
267.241	95.691	98.524	105.208	0		
267.608	98.714	97.567	116.060	0		
267.975	95.511	96.369	118.094	0		
268.342	90.693	95.202	121.824	0		
268.708	92.189	99.242	108.938	0		
269.075	89.256	98.225	99.272	0		
269.442	90.962	96.519	83.669	0		
269.808	94.823	96.310	79.937	0		
270.175	92.519	96.429	84.687	0		
270.542	94.344	97.567	86.552	0		
270.908	100.420	95.472	96.898	0		
271.275	99.881	95.741	115.551	0		
271.641	96.499	95.891	113.855	0		
272.008	100.060	95.681	99.442	0		
272.375	99.582	95.083	107.751	0		
272.741	100.090	96.459	104.190	0		
273.107	100.809	96.938	94.185	0		
273.474	104.579	94.215	97.577	0		
273.840	107.781	95.950	109.786	0		
274.207	105.986	94.125	109.956	0		
274.573	105.627	95.322	107.073	0		
274.940	102.844	96.010	107.243	0		
275.306	98.714	96.489	109.108	0		
275.672	97.487	95.053	114.534	0		
276.039	101.736	95.591	110.295	0		
276.405	98.564	96.399	111.482	0		
276.771	101.527	93.796	109.616	0		
277.137	105.208	98.315	106.903	0		
277.504	100.779	102.026	92.319	0		
277.870	97.187	97.776	86.552	0		
278.236	96.110	96.848	92.149	0		
278.602	96.739	99.422	88.927	0		
278.968	97.487	97.028	89.945	0		
279.334	99.642	93.017	99.442	0		
279.700	102.155	99.721	104.869	0		
280.066	100.240	102.594	102.664	0		
280.432	100.898	103.791	102.494	0		
280.798	100.450	104.031	96.389	0		
281.164	97.966	103.103	92.997	0		
281.530	95.721	96.908	89.775	0		
281.896	100.988	95.561	94.354	0		
282.262	97.936	92.479	100.120	0		
282.628	92.938	94.933	103.512	0		
282.994	96.260	99.482	98.764	0		
283.360	96.409	103.791	103.512	0		
283.726	90.573	102.265	96.220	0		
284.092	90.034	100.230	88.927	0		
284.457	95.362	96.609	88.588	0		
284.823	92.489	96.369	96.220	0		
285.189	91.950	100.110	97.237	0		
285.555	95.362	100.888	98.764	0		
285.920	98.325	101.696	106.903	0		
286.286	92.878	102.774	103.512	0		
286.652	95.841	97.896	102.325	0		
287.017	100.210	92.868	104.360	0		
287.383	98.385	90.414	107.921	0		
287.749	99.103	94.723	104.360	0		
288.114	103.263	94.215	100.290	0		
288.480	102.664	93.706	95.372	0		
288.845	100.120	96.010	90.114	0		
289.211	103.771	93.945	73.491	0		
289.576	102.993	92.329	81.294	0		
289.942	103.592	89.725	94.693	0		
290.307	102.095	94.125	98.764	0		
290.672	101.287	93.796	98.085	0		
291.038	99.761	98.285	101.477	0		
291.403	99.103	101.457	96.220	0		
291.768	95.841	106.754	91.301	0		
292.134	99.252	106.036	97.916	0		
292.499	106.076	105.198	95.711	0		
292.864	107.632	102.594	107.921	0		
293.230	107.991	99.063	113.855	0		
293.595	112.958	98.045	118.603	0		
293.960	109.457	96.280	116.907	0		
294.325	104.849	94.514	127.249	0		
294.690	101.976	94.005	117.077	0		
295.055	97.517	98.794	115.551	0		
295.421	96.200	97.177	113.177	0		
295.786	100.210	98.494	114.195	0		
296.151	100.869	98.943	108.599	0		
296.516	105.477	104.480	110.803	0		
296.881	106.644	99.332	109.956	0		
297.246	107.482	100.589	115.381	0		
297.611	104.190	101.816	104.699	0		
297.976	103.861	103.552	102.155	0		
298.341	101.886	99.302	103.851	0		
298.705	104.071	102.295	103.682	0		
299.070	102.125	102.774	94.863	0		
299.435	100.839	102.235	101.816	0		
299.800	98.175	100.918	105.377	0		
300.165	98.744	102.923	100.460	0.03759625997599		
300.530	96.320	104.360	98.255	0.0232870280685357		
300.894	100.360	102.594	95.202	-0.0484129109902073		
301.259	103.741	103.791	88.249	-0.124595594111449		
301.624	107.991	106.245	86.213	-0.215037389637802		
301.988	107.691	104.300	94.185	-0.100161815759042		
302.353	113.496	102.983	88.757	-0.167974376661004		
302.718	111.372	105.766	95.541	-0.107061991820728		
303.082	111.970	103.582	105.886	-0.0522577320218907		
303.447	105.896	102.804	111.651	0.0660420167230196		
303.811	103.412	105.078	108.430	0.0725375403530298		
304.176	96.140	103.612	120.129	0.179971328169837		
304.541	91.591	104.928	120.129	0.212880287825898		
304.905	87.430	107.382	112.669	0.211844618051591		
305.270	85.006	108.250	105.547	0.209723552758866		
305.634	84.347	112.529	107.921	0.233105781559618		
305.998	88.119	112.948	93.167	0.0556712484471289		
306.363	86.892	108.041	94.015	0.0634569399923676		
306.727	86.742	102.295	98.424	0.134233591931504		
307.091	94.195	100.799	106.395	0.241509660664682		
307.456	95.212	94.484	104.699	0.163232946801868		
307.820	94.763	92.838	109.956	0.169295547626404		
308.184	101.108	97.716	108.599	0.0536455625257587		
308.549	106.614	103.342	107.582	0.00656646311604504		
308.913	105.926	100.948	106.903	0.00792720070103861		
309.277	107.183	102.504	111.143	0.0342901512167371		
309.641	108.410	103.043	108.938	0.00339984249616903		
310.005	105.926	102.744	103.003	-0.0188514657887932		
310.370	101.766	100.589	97.237	-0.0295494079964072		
310.734	101.976	100.350	102.325	0.00291619897770859		
311.098	102.275	98.704	96.220	-0.0540414354817709		
311.462	98.953	99.602	106.903	0.0582449982361707		
311.826	98.804	97.148	109.108	0.0666667170391834		
312.190	98.295	99.332	114.534	0.112080838469437		
312.554	99.552	102.175	104.869	0.0407453801237081		
312.918	102.634	102.235	105.377	0.0248894313957504		
313.282	106.195	101.816	104.529	-0.0131530081996125		
313.646	110.085	103.672	110.634	0.00415569137548866		
314.010	108.021	102.534	109.447	0.0110479253037306		
314.373	105.627	102.235	112.669	0.0628394772601188		
314.737	100.599	101.248	113.177	0.142925086146538		
315.101	98.355	103.013	113.177	0.132564620238416		
315.465	96.260	103.761	106.903	0.0828196627207644		
315.829	102.095	103.462	111.482	0.087517510201798		
316.192	100.839	102.564	118.094	0.163452955498177		
316.556	99.193	106.365	123.350	0.372329308178951		
316.920	100.450	104.928	109.956	0.225228219211255		
317.283	99.073	101.547	117.246	0.244067791727803		
317.647	96.798	99.811	116.738	0.27678287232105		
318.011	96.739	104.091	108.090	0.173686771037868		
318.374	100.509	102.385	105.886	0.0752067120287609		
318.738	100.539	103.881	118.433	0.291727680443878		
319.101	99.791	105.617	119.959	0.307790938029201		
319.465	102.215	106.036	119.281	0.205028122535705		
319.828	101.078	100.918	120.807	0.267058089910352		
320.192	101.168	102.325	129.453	0.443732820364762		
320.555	101.437	101.098	134.030	0.455723326395821		
320.919	104.160	99.632	132.843	0.335586025973662		
321.282	101.736	102.953	128.605	0.245526100832249		
321.646	106.345	105.826	129.961	0.174350817635924		
322.009	103.622	103.672	119.281	0.115513317993755		
322.372	102.664	100.469	110.125	0.060153523135279		
322.736	101.796	103.013	105.716	0.0363712494696012		
323.099	106.375	105.527	98.764	-0.093909809556633		
323.462	106.195	106.365	96.389	-0.145821550059442		
323.825	108.021	106.873	106.056	-0.0269319609842627		
324.189	108.649	110.105	107.921	-0.0105745260539897		
324.552	109.786	107.382	112.669	0.0430438736343151		
324.915	103.293	102.504	125.723	0.423203898903169		
325.278	98.923	100.080	119.111	0.369815655566092		
325.641	97.128	98.674	120.298	0.309774601813225		
326.004	97.187	98.015	126.232	0.32501321606833		
326.367	96.828	99.512	114.703	0.232771174237649		
326.730	101.108	98.973	118.094	0.205564285370447		
327.093	103.771	99.661	139.115	0.418909951844515		
327.456	103.263	100.469	129.283	0.241362672641859		
327.819	102.754	98.345	119.111	0.142391345231151		
328.182	100.928	98.105	125.893	0.248630906232795		
328.545	100.689	96.399	114.195	0.164191986990997		
328.908	103.083	95.023	90.284	-0.164366388808322		
329.271	106.165	98.794	94.185	-0.180117212782456		
329.634	106.046	102.684	105.038	-0.0132553027246192		
329.996	103.771	102.056	106.564	0.0388401505161103		
330.359	102.993	104.360	106.734	0.0470801248087499		
330.722	102.066	105.826	112.160	0.0947162316489725		
331.085	103.023	106.395	108.769	0.0614443661302534		
331.447	103.532	106.724	105.716	0.0215018729700771		
331.810	108.021	107.382	102.664	-0.0550952773539919		
332.173	106.165	107.711	116.738	0.153236972582797		
332.535	104.460	105.377	120.468	0.293033958946106		
332.898	105.268	103.342	125.723	0.310540661265791		
333.260	106.345	100.859	119.790	0.25607800336438		
333.623	106.824	101.427	122.163	0.253243606347674		
333.985	104.998	98.434	112.329	0.144169550530665		
334.348	105.268	100.559	118.603	0.189518423654608		
334.710	104.759	98.015	112.329	0.0975065919797226		
335.073	105.447	102.056	118.264	0.142522847131897		
335.435	104.370	102.085	124.706	0.277716149268976		
335.798	108.858	102.564	117.925	0.147577638520809		
336.160	107.961	99.063	115.212	0.106642412544838		
336.522	106.465	101.038	118.772	0.195335392461583		
336.885	103.023	97.267	119.281	0.418977940805561		
337.247	101.048	98.853	107.921	0.120521895987414		
337.609	101.258	102.295	118.264	0.26771623060302		
337.971	104.669	107.861	110.295	0.0682515328480217		
338.334	102.754	108.160	117.246	0.160105652590749		
338.696	106.285	109.267	116.060	0.103884248731121		
339.058	104.669	111.871	117.925	0.130089965630638		
339.420	102.485	111.751	108.769	0.0561210422670302		
339.782	100.569	111.631	112.499	0.12821362219422		
340.144	100.958	109.836	110.973	0.114533132814428		
340.506	100.509	108.699	110.464	0.15710965949674		
340.868	103.741	104.300	110.803	0.0910344230817654		
341.230	105.238	100.799	119.111	0.174615735099877		
341.592	106.824	97.477	119.451	0.142229258214065		
341.954	106.554	96.998	114.195	0.0889018567348543		
342.316	109.218	95.202	108.430	-0.00747527003723115		
342.678	110.265	94.753	107.751	-0.0250840156525267		
343.040	112.659	96.340	108.599	-0.0415867410384143		
343.402	112.778	97.177	105.547	-0.0696544574024625		
343.764	113.676	96.070	98.594	-0.149005278279061		
344.126	109.577	98.135	98.255	-0.110978194699779		
344.487	110.953	97.477	107.751	-0.0312023333634702		
344.849	109.666	97.028	108.430	-0.0152709623531733		
345.211	107.751	97.447	113.008	0.0575591163122499		
345.572	110.863	104.450	116.738	0.0574298797158465		
345.934	112.689	103.701	120.976	0.101613618342784		
346.296	107.901	104.719	118.603	0.116738615789078		
346.657	106.644	105.886	111.143	0.0502470394948269		
347.019	105.208	103.761	104.190	-0.0109701002279209		
347.380	102.634	99.153	101.986	-0.00562050054889516		
347.742	103.622	100.230	102.664	-0.00828307205747218		
348.104	107.063	100.559	95.541	-0.0867780503118009		
348.465	107.003	102.804	94.524	-0.0868931605456809		
348.826	107.063	104.569	92.828	-0.102240520521001		
349.188	108.080	104.300	93.845	-0.102464360749314		
349.549	103.562	103.672	95.711	-0.05979534646376		
349.911	102.784	104.360	106.564	0.0281969131849617		
350.272	99.731	105.437	104.529	0.0360736644012972		
350.633	97.816	106.754	116.060	0.162684501414538		
350.995	97.217	107.801	119.790	0.218971327847801		
351.356	98.594	108.759	114.703	0.165544373370767		
351.717	98.624	110.315	107.243	0.0908273727280063		
352.078	104.160	106.125	113.855	0.0885603037062952		
352.440	104.998	109.178	104.869	-0.0012153614648272		
352.801	104.011	106.275	106.564	0.0242296845164052		
353.162	104.908	102.983	112.499	0.0701480881006386		
353.523	106.465	97.567	104.360	-0.0162320079119602		
353.884	104.519	100.380	100.290	-0.0318282486995288		
354.245	107.302	96.190	105.208	-0.0145027844868157		
354.606	112.060	99.781	93.845	-0.122566636707186		
354.967	111.821	100.649	91.301	-0.137237265704017		
355.328	108.170	101.337	103.003	-0.0350781917707185		
355.689	107.542	101.517	104.869	-0.0171204835819018		
356.050	108.320	102.056	103.682	-0.0317934374061112		
356.411	104.340	100.200	108.769	0.0294966034631506		
356.772	106.255	102.056	102.494	-0.0276602597593787		
357.133	110.953	103.253	108.938	-0.0140415811479102		
357.493	112.928	101.786	118.094	0.0349566601320627		
357.854	111.671	101.726	116.568	0.0335005431785127		
358.215	110.414	100.649	126.062	0.116707276617675		
358.576	112.838	98.075	132.335	0.147331625850966		
358.936	107.961	100.051	122.502	0.105788846405472		
359.297	101.377	100.559	123.859	0.150677356503288		
359.658	100.659	98.195	131.148	0.199819935205758		
360.018	103.951	98.644	130.640	0.176132969586573		
360.379	98.115	101.547	132.504	0.210749467126109		
360.739	100.928	101.966	128.097	0.158784802078133		
361.100	100.300	99.452	116.229	0.0947108740335357		
361.461	98.953	99.183	115.042	0.0998387080129682		
361.821	100.031	104.509	112.329	0.0743647495743695		
362.181	103.293	105.856	106.903	0.0221914227131762		
362.542	103.352	107.442	107.412	0.024990704341929		
362.902	108.679	111.721	114.703	0.0372827668686486		
363.263	112.659	112.918	106.734	-0.0373141539417171		
363.623	106.973	108.639	106.734	-0.00148703083723683		
363.983	108.290	105.647	119.959	0.071403372198871		
364.344	108.380	105.198	125.215	0.109841872252854		
364.704	107.392	102.804	124.367	0.118648769352944		
365.064	105.058	104.031	125.384	0.136374963668794		
365.424	109.158	105.916	125.723	0.1197615339946		
365.785	105.148	105.317	118.772	0.0981544482565793		
366.145	103.532	101.337	114.703	0.0805989272880518		
366.505	97.816	101.098	111.143	0.0991015243995614		
366.865	98.714	102.983	117.586	0.141897131202789		
367.225	99.133	102.744	115.890	0.125620236607299		
367.585	96.948	104.839	119.790	0.171059268124993		
367.945	100.031	107.352	117.586	0.124961604367054		
368.305	103.981	111.571	126.401	0.156292174086138		
368.665	102.425	111.871	121.655	0.135954542692915		
369.025	101.198	112.020	118.264	0.116916577804278		
